* Measurement data measured by REW V5.31.3
* Source: USB-C to 3.5mm Headphone Jack Adapter, USB-C to 3.5mm Headphone Jack Adapter, 0, volume: 0.138
* Format: 256k Log Swept Sine, 1 sweep at -12.0 dBFS with no timing reference
* Dated: Oct 8, 2024 4:15:36 PM
* REW Settings:
*  C-weighting compensation: Off
*  Target level: 75.0 dB
* Note: 
* Measurement: L
* Smoothing: None
* Frequency Step: 1/48 octave
* Start Frequency: 20.300 Hz
*
* Freq(Hz)	SPL(dB)	Phase(degrees)
20.299999	106.367	-170.2880
20.600000	106.371	-170.9224
20.900000	106.367	-171.4976
21.200001	106.361	-172.0728
21.400000	106.357	-172.4579
21.799999	106.349	-173.2245
22.000000	106.345	-173.6006
22.400000	106.336	-174.3268
22.700001	106.330	-174.8418
23.000000	106.324	-175.3327
23.299999	106.319	-175.8065
23.600000	106.314	-176.2721
24.000000	106.306	-176.8940
24.299999	106.299	-177.3654
24.700001	106.288	-177.9986
25.000000	106.279	-178.4724
25.400000	106.267	-179.0975
25.799999	106.254	-179.7126
26.200001	106.242	179.6836
26.500000	106.232	179.2401
26.900000	106.217	178.6665
27.200001	106.204	178.2527
27.600000	106.186	177.7234
28.000000	106.169	177.2140
28.500000	106.148	176.5891
29.000000	106.128	175.9613
29.500000	106.106	175.3296
30.000000	106.083	174.7048
30.400000	106.063	174.2163
30.700001	106.047	173.8576
31.100000	106.026	173.3881
31.500000	106.006	172.9269
32.000000	105.980	172.3613
32.500000	105.954	171.8094
33.000000	105.928	171.2720
33.500000	105.902	170.7462
34.000000	105.876	170.2278
34.500000	105.848	169.7161
35.000000	105.819	169.2137
35.500000	105.789	168.7225
36.000000	105.760	168.2395
36.500000	105.730	167.7605
37.000000	105.700	167.2852
37.500000	105.670	166.8179
38.200001	105.627	166.1855
38.700001	105.597	165.7502
39.500000	105.550	165.0750
40.000000	105.520	164.6604
40.599998	105.484	164.1638
41.200001	105.447	163.6696
41.799999	105.409	163.1907
42.500000	105.365	162.6590
43.099998	105.328	162.2076
43.700001	105.290	161.7455
44.400002	105.243	161.2161
45.000000	105.204	160.7899
45.500000	105.174	160.4439
46.200001	105.131	159.9603
46.799999	105.089	159.5677
47.500000	105.040	159.1501
48.200001	104.998	158.7183
48.700001	104.969	158.3749
49.400002	104.924	157.8832
50.000000	104.883	157.4954
50.799999	104.828	157.0178
51.500000	104.782	156.5997
52.200001	104.737	156.1826
53.000000	104.688	155.7240
53.799999	104.637	155.2901
54.500000	104.589	154.9322
55.200001	104.542	154.5753
56.000000	104.491	154.1324
57.000000	104.426	153.5842
58.000000	104.362	153.1258
59.000000	104.297	152.6174
60.000000	104.222	152.1306
60.799999	104.176	151.8035
61.500000	104.141	151.4865
62.200001	104.098	151.1600
63.000000	104.044	150.8278
64.000000	103.981	150.4138
65.000000	103.917	149.9829
66.000000	103.853	149.5828
67.000000	103.793	149.1833
68.000000	103.732	148.8058
69.000000	103.673	148.4364
70.000000	103.606	148.0338
71.000000	103.539	147.7135
72.000000	103.486	147.3875
73.000000	103.424	147.0179
74.000000	103.363	146.6909
75.000000	103.305	146.3504
76.199997	103.231	145.9732
77.500000	103.151	145.5830
78.800003	103.078	145.2007
80.000000	103.008	144.8454
81.199997	102.937	144.5419
82.500000	102.865	144.1685
83.800003	102.790	143.7975
85.000000	102.725	143.4991
86.199997	102.657	143.2032
87.500000	102.586	142.8913
88.500000	102.532	142.6458
90.000000	102.448	142.2985
91.199997	102.383	142.0247
92.500000	102.314	141.7422
93.800003	102.246	141.4678
95.000000	102.182	141.2158
96.199997	102.119	140.9714
97.500000	102.053	140.7138
98.800003	101.988	140.4626
100.000000	101.927	140.2413
101.500000	101.850	139.9755
103.000000	101.776	139.7055
104.400002	101.707	139.4656
106.000000	101.627	139.1951
107.500000	101.555	138.9580
109.000000	101.481	138.7289
110.599998	101.412	138.4882
112.000000	101.341	138.2618
113.800003	101.264	138.0030
115.000000	101.201	137.8968
117.199997	101.105	137.5415
118.000000	101.084	137.4763
120.599998	100.932	137.4816
122.000000	100.887	136.8805
124.099998	100.807	136.7700
125.000000	100.761	136.6660
126.500000	100.705	136.4556
128.000000	100.637	136.3866
131.500000	100.504	136.0150
132.000000	100.483	135.9600
134.000000	100.404	135.7618
136.000000	100.325	135.5909
138.000000	100.247	135.4333
140.000000	100.178	135.2708
143.000000	100.060	135.0464
145.000000	99.988	134.8319
147.500000	99.900	134.6891
150.000000	99.815	134.5120
152.500000	99.728	134.2618
155.000000	99.642	134.3287
157.500000	99.559	134.0174
160.000000	99.479	133.9130
162.500000	99.397	133.7481
165.000000	99.304	133.7437
167.500000	99.228	133.6085
170.000000	99.154	133.5247
172.500000	99.080	133.4627
175.000000	99.005	133.4286
177.500000	98.942	133.3711
180.000000	98.881	133.4053
182.500000	98.823	133.3148
185.000000	98.770	133.2718
187.500000	98.722	133.2062
190.000000	98.671	133.1212
192.500000	98.623	132.9960
195.000000	98.576	132.8221
197.500000	98.522	132.6957
200.000000	98.468	132.5793
203.000000	98.401	132.4305
206.000000	98.335	132.3011
209.000000	98.269	132.1582
212.000000	98.201	132.0489
214.000000	98.154	132.0113
218.000000	98.072	131.8616
220.000000	98.031	131.8030
224.000000	97.950	131.6971
227.000000	97.891	131.6274
230.000000	97.834	131.5638
233.000000	97.776	131.4977
236.000000	97.722	131.4337
240.000000	97.649	131.3577
243.000000	97.603	131.3231
247.000000	97.534	131.2569
250.000000	97.488	131.2034
254.000000	97.425	131.1483
258.000000	97.364	131.1016
262.000000	97.308	131.0446
265.000000	97.265	131.0081
269.000000	97.211	130.9419
272.000000	97.173	130.9126
276.000000	97.122	130.8640
280.000000	97.074	130.8119
285.000000	97.013	130.7450
290.000000	96.956	130.6854
295.000000	96.902	130.6312
300.000000	96.848	130.5999
304.000000	96.812	130.5445
307.000000	96.783	130.4929
311.000000	96.749	130.4618
315.000000	96.713	130.4096
320.000000	96.669	130.3510
325.000000	96.629	130.3130
330.000000	96.592	130.2620
335.000000	96.558	130.1983
340.000000	96.525	130.1316
345.000000	96.494	130.0727
350.000000	96.464	130.0137
355.000000	96.436	129.9446
360.000000	96.413	129.8879
365.000000	96.388	129.8087
370.000000	96.365	129.7356
375.000000	96.345	129.6528
382.000000	96.320	129.5372
387.000000	96.302	129.4531
395.000000	96.277	129.3175
400.000000	96.262	129.2142
406.000000	96.247	129.0982
412.000000	96.234	128.9736
418.000000	96.223	128.8521
425.000000	96.213	128.7091
431.000000	96.206	128.5829
437.000000	96.199	128.4477
444.000000	96.197	128.2680
450.000000	96.195	128.1013
455.000000	96.195	127.9601
462.000000	96.194	127.7620
468.000000	96.197	127.5956
475.000000	96.197	127.3652
482.000000	96.198	127.1572
487.000000	96.201	126.9872
494.000000	96.206	126.7619
500.000000	96.210	126.5641
508.000000	96.220	126.2685
515.000000	96.228	126.0208
522.000000	96.234	125.7370
530.000000	96.245	125.4157
538.000000	96.253	125.1133
545.000000	96.261	124.8170
552.000000	96.271	124.5259
560.000000	96.280	124.2014
570.000000	96.290	123.7800
580.000000	96.301	123.3414
590.000000	96.311	122.9254
600.000000	96.323	122.4865
608.000000	96.335	122.1292
615.000000	96.340	121.8386
622.000000	96.346	121.5229
630.000000	96.354	121.1808
640.000000	96.363	120.7570
650.000000	96.373	120.3181
660.000000	96.379	119.9023
670.000000	96.390	119.4985
680.000000	96.393	119.0825
690.000000	96.404	118.6981
700.000000	96.408	118.3139
710.000000	96.417	117.9518
720.000000	96.423	117.5762
730.000000	96.431	117.2468
740.000000	96.441	116.9163
750.000000	96.449	116.6104
762.000000	96.463	116.2358
775.000000	96.482	115.8715
788.000000	96.499	115.5219
800.000000	96.523	115.2141
812.000000	96.546	114.9432
825.000000	96.574	114.6395
838.000000	96.606	114.3708
850.000000	96.642	114.1247
862.000000	96.680	113.8900
875.000000	96.725	113.6509
885.000000	96.764	113.4628
900.000000	96.826	113.1575
912.000000	96.880	112.9791
925.000000	96.947	112.7357
938.000000	97.016	112.5318
950.000000	97.087	112.2967
962.000000	97.162	112.0785
975.000000	97.250	111.8037
988.000000	97.342	111.5160
1000.000000	97.432	111.2101
1015.000000	97.547	110.7917
1030.000000	97.666	110.3275
1044.000000	97.779	109.8610
1060.000000	97.910	109.2744
1075.000000	98.033	108.6613
1090.000000	98.157	108.0149
1106.000000	98.287	107.2723
1120.000000	98.399	106.5763
1138.000000	98.538	105.6370
1150.000000	98.629	104.9830
1172.000000	98.790	103.7360
1180.000000	98.848	103.2623
1206.000000	99.022	101.6772
1220.000000	99.110	100.8049
1241.000000	99.233	99.4714
1250.000000	99.283	98.8970
1265.000000	99.365	97.9155
1280.000000	99.439	96.9508
1315.000000	99.598	94.6765
1320.000000	99.621	94.3520
1340.000000	99.702	93.0382
1360.000000	99.775	91.7531
1380.000000	99.845	90.4845
1400.000000	99.908	89.2348
1430.000000	99.997	87.3721
1450.000000	100.054	86.1543
1475.000000	100.121	84.6579
1500.000000	100.182	83.1615
1525.000000	100.247	81.7155
1550.000000	100.310	80.2733
1575.000000	100.371	78.8272
1600.000000	100.431	77.4067
1625.000000	100.495	75.9809
1650.000000	100.561	74.5454
1675.000000	100.627	73.0991
1700.000000	100.694	71.6357
1725.000000	100.763	70.1443
1750.000000	100.832	68.6212
1775.000000	100.902	67.0692
1800.000000	100.970	65.4742
1825.000000	101.039	63.8326
1850.000000	101.105	62.1614
1875.000000	101.170	60.4507
1900.000000	101.231	58.6732
1925.000000	101.288	56.8672
1950.000000	101.339	55.0043
1975.000000	101.385	53.1096
2000.000000	101.421	51.1605
2030.000000	101.458	48.7975
2060.000000	101.482	46.3922
2090.000000	101.493	43.9589
2120.000000	101.490	41.5133
2140.000000	101.480	39.8894
2180.000000	101.444	36.6376
2200.000000	101.417	35.0256
2240.000000	101.349	31.8713
2270.000000	101.288	29.5590
2300.000000	101.217	27.3149
2330.000000	101.140	25.1450
2360.000000	101.062	23.0360
2400.000000	100.949	20.3683
2430.000000	100.866	18.4499
2470.000000	100.755	16.0180
2500.000000	100.675	14.2711
2540.000000	100.576	12.0712
2580.000000	100.487	10.0164
2620.000000	100.412	8.0543
2650.000000	100.366	6.6698
2690.000000	100.316	4.8735
2720.000000	100.291	3.6118
2760.000000	100.270	1.9893
2800.000000	100.270	0.4338
2850.000000	100.295	-1.3898
2900.000000	100.356	-3.1443
2950.000000	100.455	-4.8381
3000.000000	100.598	-6.5602
3040.000000	100.742	-8.0451
3070.000000	100.866	-9.2090
3110.000000	101.041	-10.9302
3150.000000	101.222	-12.8466
3200.000000	101.441	-15.4788
3250.000000	101.629	-18.3705
3300.000000	101.772	-21.4308
3350.000000	101.860	-24.5493
3400.000000	101.890	-27.5814
3450.000000	101.867	-30.4313
3500.000000	101.796	-32.9713
3550.000000	101.689	-35.1591
3600.000000	101.568	-36.9413
3650.000000	101.442	-38.3354
3700.000000	101.327	-39.3448
3750.000000	101.233	-40.0311
3820.000000	101.144	-40.5847
3870.000000	101.119	-40.7560
3950.000000	101.145	-40.7756
4000.000000	101.197	-40.7342
4060.000000	101.297	-40.6517
4120.000000	101.429	-40.6224
4180.000000	101.584	-40.7052
4250.000000	101.786	-40.9589
4310.000000	101.964	-41.3419
4370.000000	102.137	-41.9163
4440.000000	102.319	-42.7812
4500.000000	102.450	-43.6642
4550.000000	102.531	-44.4332
4620.000000	102.612	-45.5182
4680.000000	102.645	-46.3910
4750.000000	102.650	-47.3209
4820.000000	102.621	-48.0688
4870.000000	102.586	-48.5116
4940.000000	102.515	-48.9481
5000.000000	102.441	-49.1773
5080.000000	102.325	-49.2465
5150.000000	102.214	-49.0879
5220.000000	102.097	-48.7485
5300.000000	101.965	-48.0875
5380.000000	101.839	-47.1797
5450.000000	101.736	-46.2177
5520.000000	101.643	-45.0758
5600.000000	101.554	-43.6174
5700.000000	101.466	-41.5516
5800.000000	101.423	-39.2970
5900.000000	101.421	-36.8983
6000.000000	101.467	-34.4474
6080.000000	101.535	-32.5165
6150.000000	101.617	-30.8857
6220.000000	101.719	-29.3206
6300.000000	101.855	-27.6293
6400.000000	102.046	-25.7482
6500.000000	102.259	-24.1357
6600.000000	102.480	-22.8240
6700.000000	102.693	-21.8590
6800.000000	102.887	-21.2117
6900.000000	103.049	-20.8510
7000.000000	103.162	-20.7113
7100.000000	103.225	-20.6503
7200.000000	103.243	-20.6013
7300.000000	103.221	-20.5181
7400.000000	103.154	-20.3712
7500.000000	103.050	-20.0526
7620.000000	102.898	-19.4232
7750.000000	102.731	-18.3651
7880.000000	102.577	-17.1942
8000.000000	102.448	-16.0911
8120.000000	102.321	-15.1261
8250.000000	102.175	-14.2555
8380.000000	102.001	-13.6458
8500.000000	101.798	-13.3972
8620.000000	101.513	-13.3521
8750.000000	101.078	-13.2833
8850.000000	100.657	-12.9703
9000.000000	99.915	-11.6418
9120.000000	99.284	-9.7241
9250.000000	98.608	-6.7839
9380.000000	97.988	-3.0868
9500.000000	97.471	0.8292
9620.000000	97.029	5.0806
9750.000000	96.653	9.8223
9880.000000	96.362	14.6175
10000.000000	96.172	19.0029
10150.000000	96.035	24.0250
10300.000000	95.972	28.5770
10440.000000	95.958	32.3499
10600.000000	95.966	35.9934
10750.000000	95.965	38.9206
10900.000000	95.961	41.5149
11060.000000	95.954	44.1289
11200.000000	95.996	46.1829
11380.000000	96.101	48.1216
11500.000000	96.180	48.6906
11720.000000	96.190	48.5294
11800.000000	96.130	48.2948
12060.000000	95.762	47.7262
12200.000000	95.449	47.8530
12410.000000	94.994	49.2853
12500.000000	94.803	50.0756
12650.000000	94.477	52.2518
12800.000000	94.343	55.4748
13150.000000	94.813	61.4732
13200.000000	94.944	62.0236
13400.000000	95.558	63.2902
13600.000000	96.329	62.7232
13800.000000	97.147	59.8805
14000.000000	97.887	54.6816
14300.000000	98.617	43.8570
14500.000000	98.861	35.6324
14750.000000	98.991	24.6509
15000.000000	99.016	12.4341
15250.000000	98.874	-1.2596
15500.000000	98.436	-16.8395
15750.000000	97.613	-32.7606
16000.000000	96.603	-47.5878
16250.000000	95.707	-61.3093
16500.000000	95.181	-75.1287
16750.000000	95.166	-90.9908
17000.000000	95.666	-111.6018
17250.000000	96.363	-139.8600
17500.000000	96.496	-176.0217
17750.000000	95.674	144.9270
18000.000000	94.224	106.4948
18250.000000	93.184	75.4135
18500.000000	93.997	22.0585
18750.000000	91.144	-35.4348
19000.000000	88.736	-88.2244
19250.000000	85.615	-147.3352
19500.000000	82.220	148.8596
19750.000000	78.003	76.5947
